Energy(eV)         TotAbs
    0.0000       0.002421
    0.0200       0.002433
    0.0400       0.002445
    0.0600       0.002458
    0.0800       0.002470
    0.1000       0.002483
    0.1200       0.002496
    0.1400       0.002509
    0.1600       0.002522
    0.1800       0.002535
    0.2000       0.002548
    0.2200       0.002562
    0.2400       0.002575
    0.2600       0.002589
    0.2800       0.002603
    0.3000       0.002617
    0.3200       0.002631
    0.3400       0.002645
    0.3600       0.002659
    0.3800       0.002674
    0.4000       0.002688
    0.4200       0.002703
    0.4400       0.002718
    0.4600       0.002733
    0.4800       0.002748
    0.5000       0.002763
    0.5200       0.002779
    0.5400       0.002794
    0.5600       0.002810
    0.5800       0.002826
    0.6000       0.002842
    0.6200       0.002858
    0.6400       0.002874
    0.6600       0.002891
    0.6800       0.002907
    0.7000       0.002924
    0.7200       0.002941
    0.7400       0.002958
    0.7600       0.002976
    0.7800       0.002993
    0.8000       0.003011
    0.8200       0.003029
    0.8400       0.003047
    0.8600       0.003065
    0.8800       0.003083
    0.9000       0.003102
    0.9200       0.003121
    0.9400       0.003140
    0.9600       0.003159
    0.9800       0.003178
    1.0000       0.003198
    1.0200       0.003218
    1.0400       0.003238
    1.0600       0.003258
    1.0800       0.003279
    1.1000       0.003299
    1.1200       0.003320
    1.1400       0.003341
    1.1600       0.003363
    1.1800       0.003384
    1.2000       0.003406
    1.2200       0.003428
    1.2400       0.003450
    1.2600       0.003473
    1.2800       0.003496
    1.3000       0.003519
    1.3200       0.003542
    1.3400       0.003566
    1.3600       0.003590
    1.3800       0.003614
    1.4000       0.003638
    1.4200       0.003663
    1.4400       0.003688
    1.4600       0.003713
    1.4800       0.003739
    1.5000       0.003765
    1.5200       0.003791
    1.5400       0.003817
    1.5600       0.003844
    1.5800       0.003871
    1.6000       0.003899
    1.6200       0.003927
    1.6400       0.003955
    1.6600       0.003983
    1.6800       0.004012
    1.7000       0.004041
    1.7200       0.004071
    1.7400       0.004101
    1.7600       0.004131
    1.7800       0.004162
    1.8000       0.004193
    1.8200       0.004224
    1.8400       0.004256
    1.8600       0.004288
    1.8800       0.004321
    1.9000       0.004354
    1.9200       0.004388
    1.9400       0.004422
    1.9600       0.004456
    1.9800       0.004491
    2.0000       0.004526
    2.0200       0.004562
    2.0400       0.004599
    2.0600       0.004635
    2.0800       0.004673
    2.1000       0.004711
    2.1200       0.004749
    2.1400       0.004788
    2.1600       0.004827
    2.1800       0.004867
    2.2000       0.004908
    2.2200       0.004949
    2.2400       0.004990
    2.2600       0.005033
    2.2800       0.005076
    2.3000       0.005119
    2.3200       0.005163
    2.3400       0.005208
    2.3600       0.005254
    2.3800       0.005300
    2.4000       0.005346
    2.4200       0.005394
    2.4400       0.005442
    2.4600       0.005491
    2.4800       0.005541
    2.5000       0.005591
    2.5200       0.005643
    2.5400       0.005695
    2.5600       0.005747
    2.5800       0.005801
    2.6000       0.005856
    2.6200       0.005911
    2.6400       0.005967
    2.6600       0.006024
    2.6800       0.006082
    2.7000       0.006142
    2.7200       0.006202
    2.7400       0.006262
    2.7600       0.006324
    2.7800       0.006388
    2.8000       0.006452
    2.8200       0.006517
    2.8400       0.006583
    2.8600       0.006650
    2.8800       0.006719
    2.9000       0.006789
    2.9200       0.006860
    2.9400       0.006932
    2.9600       0.007005
    2.9800       0.007080
    3.0000       0.007156
    3.0200       0.007234
    3.0400       0.007313
    3.0600       0.007393
    3.0800       0.007475
    3.1000       0.007558
    3.1200       0.007643
    3.1400       0.007729
    3.1600       0.007818
    3.1800       0.007907
    3.2000       0.007999
    3.2200       0.008092
    3.2400       0.008187
    3.2600       0.008284
    3.2800       0.008383
    3.3000       0.008484
    3.3200       0.008587
    3.3400       0.008691
    3.3600       0.008798
    3.3800       0.008908
    3.4000       0.009019
    3.4200       0.009133
    3.4400       0.009249
    3.4600       0.009368
    3.4800       0.009489
    3.5000       0.009612
    3.5200       0.009739
    3.5400       0.009868
    3.5600       0.010000
    3.5800       0.010135
    3.6000       0.010272
    3.6200       0.010413
    3.6400       0.010558
    3.6600       0.010705
    3.6800       0.010856
    3.7000       0.011010
    3.7200       0.011168
    3.7400       0.011330
    3.7600       0.011495
    3.7800       0.011665
    3.8000       0.011838
    3.8200       0.012016
    3.8400       0.012198
    3.8600       0.012385
    3.8800       0.012576
    3.9000       0.012772
    3.9200       0.012974
    3.9400       0.013180
    3.9600       0.013392
    3.9800       0.013609
    4.0000       0.013832
    4.0200       0.014061
    4.0400       0.014296
    4.0600       0.014538
    4.0800       0.014786
    4.1000       0.015041
    4.1200       0.015303
    4.1400       0.015573
    4.1600       0.015850
    4.1800       0.016136
    4.2000       0.016430
    4.2200       0.016732
    4.2400       0.017043
    4.2600       0.017364
    4.2800       0.017695
    4.3000       0.018036
    4.3200       0.018387
    4.3400       0.018749
    4.3600       0.019123
    4.3800       0.019509
    4.4000       0.019907
    4.4200       0.020319
    4.4400       0.020744
    4.4600       0.021184
    4.4800       0.021638
    4.5000       0.022108
    4.5200       0.022595
    4.5400       0.023098
    4.5600       0.023620
    4.5800       0.024160
    4.6000       0.024720
    4.6200       0.025301
    4.6400       0.025904
    4.6600       0.026530
    4.6800       0.027180
    4.7000       0.027855
    4.7200       0.028557
    4.7400       0.029287
    4.7600       0.030046
    4.7800       0.030837
    4.8000       0.031662
    4.8200       0.032521
    4.8400       0.033417
    4.8600       0.034352
    4.8800       0.035328
    4.9000       0.036349
    4.9200       0.037416
    4.9400       0.038533
    4.9600       0.039702
    4.9800       0.040928
    5.0000       0.042213
    5.0200       0.043562
    5.0400       0.044979
    5.0600       0.046468
    5.0800       0.048035
    5.1000       0.049685
    5.1200       0.051424
    5.1400       0.053259
    5.1600       0.055197
    5.1800       0.057245
    5.2000       0.059412
    5.2200       0.061709
    5.2400       0.064144
    5.2600       0.066729
    5.2800       0.069478
    5.3000       0.072404
    5.3200       0.075522
    5.3400       0.078851
    5.3600       0.082408
    5.3800       0.086216
    5.4000       0.090298
    5.4200       0.094682
    5.4400       0.099397
    5.4600       0.104479
    5.4800       0.109964
    5.5000       0.115899
    5.5200       0.122331
    5.5400       0.129318
    5.5600       0.136926
    5.5800       0.145229
    5.6000       0.154315
    5.6200       0.164282
    5.6400       0.175249
    5.6600       0.187351
    5.6800       0.200749
    5.7000       0.215632
    5.7200       0.232223
    5.7400       0.250790
    5.7600       0.271654
    5.7800       0.295200
    5.8000       0.321898
    5.8200       0.352322
    5.8400       0.387175
    5.8600       0.427333
    5.8800       0.473887
    5.9000       0.528208
    5.9200       0.592036
    5.9400       0.667591
    5.9600       0.757729
    5.9800       0.866137
    6.0000       0.997598
    6.0200       1.158306
    6.0400       1.356220
    6.0600       1.601349
    6.0800       1.905703
    6.1000       2.282244
    6.1200       2.741499
    6.1400       3.283514
    6.1600       3.882876
    6.1800       4.469447
    6.2000       4.922237
    6.2200       5.107245
    6.2400       4.958732
    6.2600       4.529999
    6.2800       3.951725
    6.3000       3.349335
    6.3200       2.798943
    6.3400       2.330067
    6.3600       1.944647
    6.3800       1.632824
    6.4000       1.381677
    6.4200       1.179010
    6.4400       1.014573
    6.4600       0.880187
    6.4800       0.769477
    6.5000       0.677517
    6.5200       0.600510
    6.5400       0.535518
    6.5600       0.480258
    6.5800       0.432942
    6.6000       0.392161
    6.6200       0.356795
    6.6400       0.325950
    6.6600       0.298903
    6.6800       0.275066
    6.7000       0.253962
    6.7200       0.235194
    6.7400       0.218436
    6.7600       0.203414
    6.7800       0.189901
    6.8000       0.177704
    6.8200       0.166660
    6.8400       0.156629
    6.8600       0.147494
    6.8800       0.139151
    6.9000       0.131514
    6.9200       0.124506
    6.9400       0.118060
    6.9600       0.112118
    6.9800       0.106631
    7.0000       0.101554
    7.0200       0.096848
    7.0400       0.092477
    7.0600       0.088412
    7.0800       0.084624
    7.1000       0.081091
    7.1200       0.077790
    7.1400       0.074701
    7.1600       0.071808
    7.1800       0.069094
    7.2000       0.066546
    7.2200       0.064150
    7.2400       0.061896
    7.2600       0.059773
    7.2800       0.057771
    7.3000       0.055882
    7.3200       0.054098
    7.3400       0.052411
    7.3600       0.050816
    7.3800       0.049306
    7.4000       0.047876
    7.4200       0.046521
    7.4400       0.045236
    7.4600       0.044017
    7.4800       0.042861
    7.5000       0.041764
    7.5200       0.040722
    7.5400       0.039734
    7.5600       0.038796
    7.5800       0.037906
    7.6000       0.037063
    7.6200       0.036266
    7.6400       0.035512
    7.6600       0.034802
    7.6800       0.034135
    7.7000       0.033511
    7.7200       0.032931
    7.7400       0.032394
    7.7600       0.031898
    7.7800       0.031434
    7.8000       0.030987
    7.8200       0.030537
    7.8400       0.030066
    7.8600       0.029572
    7.8800       0.029071
    7.9000       0.028580
    7.9200       0.028115
    7.9400       0.027681
    7.9600       0.027281
    7.9800       0.026913
    8.0000       0.026574
