 Exc#  Energy(eV)      OscStr
    2      4.7083     0.00000
    3      5.3612     0.00000
    4      6.2211     0.87245
    5      6.2211     0.87245
    6      7.0620     0.00000
    7      7.0621     0.00000
    8      7.5044     0.00000
    9      7.5044     0.00000
   10      7.7174     0.00000
   11      7.7721     0.00000
   12      7.7721     0.00000
   13      7.7916     0.00000
   14      7.8037     0.00000
   15      7.8037     0.00000
   16      7.8310     0.00025
   17      7.9390     0.00000
   18      9.1416     0.00000
   19      9.1416     0.00000
   20      9.3071     0.00000
   21      9.3071     0.00000
   22      9.3227     0.18739
   23      9.5039     0.00000
   24      9.5039     0.00000
   25      9.5329     0.00000
   26      9.5329     0.00000
   27      9.8503     0.00000
   28     10.2831     0.00000
   29     11.0898     0.19266
   30     11.0898     0.19266
   31     11.1841     0.00000
   32     11.4789     0.00000
   33     11.4789     0.00000
   34     11.5192     0.00000
   35     11.6795     0.00000
   36     11.6998     0.00000
   37     11.8453     0.00000
   38     11.8724     0.00000
   39     11.8724     0.00000
   40     11.9002     0.00000
   41     11.9002     0.00000
   42     11.9720     0.00000
   43     12.5261     0.00000
   44     12.5261     0.00000
   45     12.5960     0.00000
   46     12.5960     0.00000
   47     12.6688     0.00000
   48     12.6688     0.00000
   49     13.0865     0.00000
   50     13.0865     0.00000
   51     13.1284     0.00000
   52     13.1740     0.00000
   53     13.2189     0.00000
   54     13.2189     0.00000
   55     13.3999     0.00000
   56     13.3999     0.00000
   57     13.6460     0.00000
   58     13.6496     0.02467
   59     13.6496     0.02467
   60     13.8493     0.00337
   61     13.9481     0.00000
   62     13.9481     0.00000
   63     14.3205     0.00000
   64     14.3205     0.00000
   65     14.6431     0.07023
   66     14.6431     0.07023
   67     14.7200     0.00000
   68     14.7316     0.00000
   69     14.8319     0.00000
   70     14.9612     0.00000
   71     15.0545     0.00000
   72     15.0545     0.00000
   73     15.4929     0.01321
   74     15.5841     0.00000
   75     15.6465     0.34051
   76     15.8191     0.00000
   77     15.9331     0.00000
   78     15.9331     0.00000
   79     15.9649     0.06320
   80     15.9649     0.06320
   81     16.0444     0.00000
   82     16.1752     0.72938
   83     16.1752     0.72938
   84     16.4107     0.00000
   85     16.4107     0.00000
   86     16.6348     0.00000
   87     16.6348     0.00000
   88     16.7661     0.00000
   89     16.7667     0.03479
   90     16.7667     0.03479
   91     16.7776     0.00000
   92     16.9735     0.00000
   93     17.1929     0.00866
   94     17.1929     0.00866
   95     17.2192     0.00000
   96     17.5825     0.00000
   97     17.6582     0.00000
   98     17.6582     0.00000
   99     18.4886     0.00000
  100     18.5294     0.00000
  101     18.5294     0.00000
  102     18.6723     0.00000
  103     18.8837     0.00000
  104     18.8837     0.00000
  105     19.1666     1.19557
  106     19.1666     1.19557
  107     19.2357     0.00000
  108     19.2357     0.00000
  109     19.2682     0.00000
  110     19.2682     0.00000
  111     19.8029     0.00000
  112     19.9325     0.00000
  113     19.9325     0.00000
  114     20.0839     0.12054
  115     20.0839     0.12054
  116     20.0911     0.00000
  117     20.4826     0.00000
  118     20.5165     0.00000
  119     20.5165     0.00000
  120     20.6275     0.00000
  121     20.6634     0.00000
  122     20.7817     0.00000
  123     20.7817     0.00000
  124     20.8941     0.00000
  125     21.0356     0.51700
  126     21.3630     0.08500
  127     21.3630     0.08500
  128     21.4611     0.00000
  129     21.6008     0.00000
  130     21.7765     0.00000
  131     22.0123     0.04296
  132     22.0123     0.04296
  133     22.0291     0.00000
  134     22.0291     0.00000
  135     22.0659     0.00000
  136     22.2343     0.00000
  137     22.7700     0.23171
  138     22.7700     0.23171
  139     23.0346     0.00000
  140     23.0347     0.00000
  141     23.1422     0.00000
  142     23.1422     0.00000
  143     23.8853     0.00121
  144     23.8853     0.00121
  145     23.9764     0.00000
  146     23.9764     0.00000
  147     24.3433     0.00000
  148     24.3511     0.00000
  149     24.3511     0.00000
  150     24.6184     0.00000
  151     24.8925     0.00000
  152     24.8951     0.00000
  153     25.2996     0.00352
  154     25.2996     0.00352
  155     25.4426     0.00000
  156     25.4426     0.00000
  157     25.4434     0.00000
  158     26.0741     0.00000
  159     26.0741     0.00000
  160     26.2984     0.00000
  161     26.4531     0.01952
  162     26.4531     0.01952
  163     26.9320     0.00000
  164     27.8600     0.00000
  165     28.1874     0.00000
  166     28.1874     0.00000
  167     28.6261     0.00000
  168     28.6285     0.00000
  169     28.7415     0.00000
  170     28.7415     0.00000
  171     28.8204     0.10208
  172     28.8204     0.10208
  173     29.3278     0.00000
  174     29.4674     0.00000
  175     29.4674     0.00000
  176     29.7788     0.00000
  177     30.3600     0.01249
  178     30.3600     0.01249
  179     31.0112     0.00000
  180     31.0112     0.00000
  181     31.0368     0.00000
  182     31.4705     0.00000
  183     31.4705     0.00000
  184     31.5493     0.00000
  185     31.8901     0.07844
  186     31.8901     0.07844
  187     32.1751     0.00000
  188     32.3126     0.00000
  189     33.0713     0.02965
  190     33.0713     0.02965
  191     33.5487     0.00000
  192     33.5487     0.00000
  193     33.6980     0.00488
  194     33.6980     0.00488
  195     33.8427     0.00000
  196     34.1594     0.00000
  197     34.2385     0.00000
  198     34.4382     0.00000
  199     34.4382     0.00000
  200     36.6588     0.00000
  201     36.6588     0.00000
  202     37.2375     0.00000
  203     37.3314     0.08762
  204     37.3314     0.08762
  205     37.5236     0.00000
  206     39.2108     0.00000
  207     39.2108     0.00000
  208     39.7452     0.00000
  209     39.7484     0.00000
  210     40.1600     0.00000
  211     40.1600     0.00000
  212     41.0155     0.17265
  213     41.0155     0.17265
  214     41.5730     0.00000
  215     42.4325     0.00000
  216     43.1364     0.00000
  217     43.1364     0.00000
  218     44.1011     0.00000
  219     44.6042     0.01222
  220     44.6042     0.01222
  221     47.5122     0.00000
  222     48.2671     0.00000
  223     48.2671     0.00000
  224     50.7681     0.18671
  225     50.7681     0.18671
  226     51.0014     0.00000
